# Coeficientes FIR
6.23687e-19
0.00119497
0.00273108
0.00409819
0.00379426
-2.31292e-18
-0.00790467
-0.0177984
-0.0243611
-0.0204342
5.78923e-18
0.0384284
0.0897121
0.142616
0.183151
0.199528
0.186656
0.148172
0.0950776
0.0415838
6.40502e-18
-0.0231559
-0.0283399
-0.021316
-0.0097778
-2.96438e-18
0.00504614
0.00562764
0.00378294
0.00156734
6.97097e-19
-0.000935489

# Frecuencia (Hz)	Magnitud (dB)
0	-0.0109109
0.125	-0.0109116
0.25	-0.0109137
0.375	-0.0109172
0.5	-0.0109221
0.625	-0.0109284
0.75	-0.0109362
0.875	-0.0109453
1	-0.0109558
1.125	-0.0109677
1.25	-0.010981
1.375	-0.0109956
1.5	-0.0110117
1.625	-0.0110291
1.75	-0.0110479
1.875	-0.011068
2	-0.0110895
2.125	-0.0111123
2.25	-0.0111365
2.375	-0.011162
2.5	-0.0111888
2.625	-0.011217
2.75	-0.0112464
2.875	-0.0112771
3	-0.0113091
3.125	-0.0113424
3.25	-0.011377
3.375	-0.0114127
3.5	-0.0114498
3.625	-0.011488
3.75	-0.0115275
3.875	-0.0115681
4	-0.01161
4.125	-0.011653
4.25	-0.0116971
4.375	-0.0117424
4.5	-0.0117888
4.625	-0.0118363
4.75	-0.011885
4.875	-0.0119346
5	-0.0119854
5.125	-0.0120372
5.25	-0.01209
5.375	-0.0121438
5.5	-0.0121985
5.625	-0.0122543
5.75	-0.012311
5.875	-0.0123686
6	-0.0124271
6.125	-0.0124866
6.25	-0.0125468
6.375	-0.0126079
6.5	-0.0126699
6.625	-0.0127326
6.75	-0.0127961
6.875	-0.0128604
7	-0.0129254
7.125	-0.0129911
7.25	-0.0130575
7.375	-0.0131245
7.5	-0.0131922
7.625	-0.0132605
7.75	-0.0133294
7.875	-0.0133988
8	-0.0134688
8.125	-0.0135393
8.25	-0.0136103
8.375	-0.0136817
8.5	-0.0137536
8.625	-0.0138259
8.75	-0.0138986
8.875	-0.0139716
9	-0.0140449
9.125	-0.0141186
9.25	-0.0141925
9.375	-0.0142666
9.5	-0.014341
9.625	-0.0144156
9.75	-0.0144903
9.875	-0.0145651
10	-0.0146401
10.125	-0.0147151
10.25	-0.0147902
10.375	-0.0148653
10.5	-0.0149403
10.625	-0.0150154
10.75	-0.0150903
10.875	-0.0151652
11	-0.0152399
11.125	-0.0153145
11.25	-0.0153888
11.375	-0.015463
11.5	-0.0155369
11.625	-0.0156105
11.75	-0.0156838
11.875	-0.0157568
12	-0.0158294
12.125	-0.0159016
12.25	-0.0159733
12.375	-0.0160446
12.5	-0.0161154
12.625	-0.0161857
12.75	-0.0162555
12.875	-0.0163246
13	-0.0163932
13.125	-0.0164611
13.25	-0.0165283
13.375	-0.0165948
13.5	-0.0166606
13.625	-0.0167257
13.75	-0.0167899
13.875	-0.0168533
14	-0.0169159
14.125	-0.0169776
14.25	-0.0170384
14.375	-0.0170983
14.5	-0.0171572
14.625	-0.0172151
14.75	-0.0172719
14.875	-0.0173278
15	-0.0173825
15.125	-0.0174362
15.25	-0.0174887
15.375	-0.01754
15.5	-0.0175902
15.625	-0.0176391
15.75	-0.0176869
15.875	-0.0177333
16	-0.0177784
16.125	-0.0178223
16.25	-0.0178648
16.375	-0.0179059
16.5	-0.0179456
16.625	-0.0179839
16.75	-0.0180207
16.875	-0.0180561
17	-0.01809
17.125	-0.0181224
17.25	-0.0181533
17.375	-0.0181826
17.5	-0.0182103
17.625	-0.0182364
17.75	-0.0182609
17.875	-0.0182837
18	-0.0183049
18.125	-0.0183244
18.25	-0.0183422
18.375	-0.0183582
18.5	-0.0183725
18.625	-0.0183851
18.75	-0.0183959
18.875	-0.0184049
19	-0.0184121
19.125	-0.0184174
19.25	-0.018421
19.375	-0.0184226
19.5	-0.0184224
19.625	-0.0184203
19.75	-0.0184164
19.875	-0.0184105
20	-0.0184027
20.125	-0.0183929
20.25	-0.0183812
20.375	-0.0183676
20.5	-0.018352
20.625	-0.0183345
20.75	-0.0183149
20.875	-0.0182934
21	-0.0182699
21.125	-0.0182444
21.25	-0.0182168
21.375	-0.0181873
21.5	-0.0181558
21.625	-0.0181223
21.75	-0.0180867
21.875	-0.0180491
22	-0.0180095
22.125	-0.0179679
22.25	-0.0179243
22.375	-0.0178786
22.5	-0.017831
22.625	-0.0177813
22.75	-0.0177297
22.875	-0.017676
23	-0.0176203
23.125	-0.0175627
23.25	-0.0175031
23.375	-0.0174415
23.5	-0.0173779
23.625	-0.0173124
23.75	-0.0172449
23.875	-0.0171755
24	-0.0171042
24.125	-0.017031
24.25	-0.0169559
24.375	-0.016879
24.5	-0.0168001
24.625	-0.0167195
24.75	-0.016637
24.875	-0.0165527
25	-0.0164667
25.125	-0.0163789
25.25	-0.0162893
25.375	-0.016198
25.5	-0.0161051
25.625	-0.0160105
25.75	-0.0159142
25.875	-0.0158164
26	-0.015717
26.125	-0.015616
26.25	-0.0155135
26.375	-0.0154095
26.5	-0.0153041
26.625	-0.0151972
26.75	-0.015089
26.875	-0.0149794
27	-0.0148685
27.125	-0.0147563
27.25	-0.0146429
27.375	-0.0145283
27.5	-0.0144126
27.625	-0.0142958
27.75	-0.0141779
27.875	-0.014059
28	-0.0139391
28.125	-0.0138183
28.25	-0.0136966
28.375	-0.0135741
28.5	-0.0134508
28.625	-0.0133268
28.75	-0.0132022
28.875	-0.0130769
29	-0.0129511
29.125	-0.0128248
29.25	-0.012698
29.375	-0.0125709
29.5	-0.0124434
29.625	-0.0123157
29.75	-0.0121878
29.875	-0.0120598
30	-0.0119318
30.125	-0.0118037
30.25	-0.0116757
30.375	-0.0115479
30.5	-0.0114202
30.625	-0.0112929
30.75	-0.0111659
30.875	-0.0110394
31	-0.0109134
31.125	-0.010788
31.25	-0.0106632
31.375	-0.0105392
31.5	-0.010416
31.625	-0.0102938
31.75	-0.0101726
31.875	-0.0100524
32	-0.00993341
32.125	-0.00981569
32.25	-0.00969932
32.375	-0.00958439
32.5	-0.009471
32.625	-0.00935924
32.75	-0.0092492
32.875	-0.00914098
33	-0.00903467
33.125	-0.00893038
33.25	-0.00882821
33.375	-0.00872826
33.5	-0.00863063
33.625	-0.00853542
33.75	-0.00844274
33.875	-0.0083527
34	-0.00826541
34.125	-0.00818098
34.25	-0.00809951
34.375	-0.00802112
34.5	-0.00794593
34.625	-0.00787405
34.75	-0.00780559
34.875	-0.00774068
35	-0.00767943
35.125	-0.00762196
35.25	-0.0075684
35.375	-0.00751888
35.5	-0.0074735
35.625	-0.00743241
35.75	-0.00739572
35.875	-0.00736358
36	-0.0073361
36.125	-0.00731342
36.25	-0.00729567
36.375	-0.00728299
36.5	-0.00727551
36.625	-0.00727338
36.75	-0.00727672
36.875	-0.00728568
37	-0.0073004
37.125	-0.00732102
37.25	-0.00734769
37.375	-0.00738055
37.5	-0.00741975
37.625	-0.00746544
37.75	-0.00751776
37.875	-0.00757687
38	-0.00764292
38.125	-0.00771606
38.25	-0.00779645
38.375	-0.00788424
38.5	-0.00797959
38.625	-0.00808266
38.75	-0.00819361
38.875	-0.0083126
39	-0.0084398
39.125	-0.00857536
39.25	-0.00871946
39.375	-0.00887225
39.5	-0.00903392
39.625	-0.00920462
39.75	-0.00938453
39.875	-0.00957383
40	-0.00977267
40.125	-0.00998124
40.25	-0.0101997
40.375	-0.0104283
40.5	-0.0106671
40.625	-0.0109164
40.75	-0.0111762
40.875	-0.0114469
41	-0.0117286
41.125	-0.0120214
41.25	-0.0123256
41.375	-0.0126414
41.5	-0.0129688
41.625	-0.0133082
41.75	-0.0136597
41.875	-0.0140235
42	-0.0143999
42.125	-0.0147889
42.25	-0.0151908
42.375	-0.0156058
42.5	-0.016034
42.625	-0.0164758
42.75	-0.0169312
42.875	-0.0174006
43	-0.017884
43.125	-0.0183817
43.25	-0.0188939
43.375	-0.0194208
43.5	-0.0199627
43.625	-0.0205196
43.75	-0.0210919
43.875	-0.0216798
44	-0.0222834
44.125	-0.0229029
44.25	-0.0235387
44.375	-0.0241909
44.5	-0.0248596
44.625	-0.0255452
44.75	-0.0262479
44.875	-0.0269679
45	-0.0277053
45.125	-0.0284605
45.25	-0.0292336
45.375	-0.0300248
45.5	-0.0308345
45.625	-0.0316628
45.75	-0.0325099
45.875	-0.0333761
46	-0.0342616
46.125	-0.0351666
46.25	-0.0360914
46.375	-0.0370362
46.5	-0.0380013
46.625	-0.0389868
46.75	-0.039993
46.875	-0.0410201
47	-0.0420685
47.125	-0.0431382
47.25	-0.0442296
47.375	-0.0453429
47.5	-0.0464783
47.625	-0.0476361
47.75	-0.0488166
47.875	-0.0500199
48	-0.0512463
48.125	-0.0524961
48.25	-0.0537694
48.375	-0.0550667
48.5	-0.056388
48.625	-0.0577337
48.75	-0.0591039
48.875	-0.0604991
49	-0.0619193
49.125	-0.0633649
49.25	-0.0648361
49.375	-0.0663332
49.5	-0.0678564
49.625	-0.0694059
49.75	-0.0709821
49.875	-0.0725852
50	-0.0742154
50.125	-0.0758731
50.25	-0.0775584
50.375	-0.0792717
50.5	-0.0810131
50.625	-0.082783
50.75	-0.0845816
50.875	-0.0864092
51	-0.088266
51.125	-0.0901524
51.25	-0.0920685
51.375	-0.0940147
51.5	-0.0959911
51.625	-0.0979982
51.75	-0.100036
51.875	-0.102105
52	-0.104205
52.125	-0.106338
52.25	-0.108502
52.375	-0.110698
52.5	-0.112926
52.625	-0.115188
52.75	-0.117482
52.875	-0.11981
53	-0.122171
53.125	-0.124566
53.25	-0.126996
53.375	-0.129459
53.5	-0.131958
53.625	-0.134491
53.75	-0.137059
53.875	-0.139663
54	-0.142303
54.125	-0.144979
54.25	-0.147691
54.375	-0.15044
54.5	-0.153226
54.625	-0.156049
54.75	-0.158909
54.875	-0.161807
55	-0.164744
55.125	-0.167718
55.25	-0.170731
55.375	-0.173783
55.5	-0.176874
55.625	-0.180005
55.75	-0.183176
55.875	-0.186386
56	-0.189637
56.125	-0.192928
56.25	-0.196261
56.375	-0.199634
56.5	-0.203049
56.625	-0.206506
56.75	-0.210005
56.875	-0.213546
57	-0.21713
57.125	-0.220756
57.25	-0.224426
57.375	-0.22814
57.5	-0.231897
57.625	-0.235698
57.75	-0.239544
57.875	-0.243434
58	-0.24737
58.125	-0.25135
58.25	-0.255376
58.375	-0.259448
58.5	-0.263566
58.625	-0.267731
58.75	-0.271942
58.875	-0.276201
59	-0.280506
59.125	-0.284859
59.25	-0.28926
59.375	-0.29371
59.5	-0.298208
59.625	-0.302754
59.75	-0.30735
59.875	-0.311995
60	-0.31669
60.125	-0.321435
60.25	-0.32623
60.375	-0.331075
60.5	-0.335972
60.625	-0.34092
60.75	-0.345919
60.875	-0.35097
61	-0.356073
61.125	-0.361228
61.25	-0.366436
61.375	-0.371697
61.5	-0.377011
61.625	-0.382379
61.75	-0.3878
61.875	-0.393276
62	-0.398806
62.125	-0.404391
62.25	-0.410031
62.375	-0.415727
62.5	-0.421478
62.625	-0.427285
62.75	-0.433148
62.875	-0.439068
63	-0.445044
63.125	-0.451078
63.25	-0.457169
63.375	-0.463318
63.5	-0.469526
63.625	-0.475791
63.75	-0.482115
63.875	-0.488498
64	-0.49494
64.125	-0.501442
64.25	-0.508004
64.375	-0.514626
64.5	-0.521308
64.625	-0.528051
64.75	-0.534855
64.875	-0.541721
65	-0.548648
65.125	-0.555637
65.25	-0.562688
65.375	-0.569802
65.5	-0.576979
65.625	-0.584219
65.75	-0.591523
65.875	-0.59889
66	-0.606321
66.125	-0.613817
66.25	-0.621377
66.375	-0.629003
66.5	-0.636693
66.625	-0.64445
66.75	-0.652272
66.875	-0.66016
67	-0.668115
67.125	-0.676136
67.25	-0.684225
67.375	-0.692381
67.5	-0.700605
67.625	-0.708896
67.75	-0.717256
67.875	-0.725685
68	-0.734183
68.125	-0.742749
68.25	-0.751385
68.375	-0.760091
68.5	-0.768868
68.625	-0.777714
68.75	-0.786631
68.875	-0.795619
69	-0.804679
69.125	-0.81381
69.25	-0.823013
69.375	-0.832288
69.5	-0.841636
69.625	-0.851057
69.75	-0.86055
69.875	-0.870117
70	-0.879758
70.125	-0.889473
70.25	-0.899262
70.375	-0.909126
70.5	-0.919064
70.625	-0.929078
70.75	-0.939167
70.875	-0.949332
71	-0.959574
71.125	-0.969891
71.25	-0.980286
71.375	-0.990757
71.5	-1.00131
71.625	-1.01193
71.75	-1.02264
71.875	-1.03342
72	-1.04428
72.125	-1.05522
72.25	-1.06624
72.375	-1.07734
72.5	-1.08851
72.625	-1.09977
72.75	-1.11111
72.875	-1.12253
73	-1.13403
73.125	-1.14561
73.25	-1.15727
73.375	-1.16902
73.5	-1.18084
73.625	-1.19275
73.75	-1.20474
73.875	-1.21682
74	-1.22898
74.125	-1.24122
74.25	-1.25354
74.375	-1.26595
74.5	-1.27845
74.625	-1.29103
74.75	-1.30369
74.875	-1.31644
75	-1.32928
75.125	-1.3422
75.25	-1.3552
75.375	-1.3683
75.5	-1.38148
75.625	-1.39475
75.75	-1.4081
75.875	-1.42155
76	-1.43508
76.125	-1.4487
76.25	-1.46241
76.375	-1.4762
76.5	-1.49009
76.625	-1.50407
76.75	-1.51813
76.875	-1.53229
77	-1.54654
77.125	-1.56087
77.25	-1.5753
77.375	-1.58982
77.5	-1.60443
77.625	-1.61914
77.75	-1.63393
77.875	-1.64882
78	-1.6638
78.125	-1.67888
78.25	-1.69405
78.375	-1.70931
78.5	-1.72467
78.625	-1.74012
78.75	-1.75566
78.875	-1.7713
79	-1.78704
79.125	-1.80287
79.25	-1.81879
79.375	-1.83482
79.5	-1.85094
79.625	-1.86715
79.75	-1.88347
79.875	-1.89988
80	-1.91639
80.125	-1.93299
80.25	-1.9497
80.375	-1.9665
80.5	-1.9834
80.625	-2.0004
80.75	-2.0175
80.875	-2.0347
81	-2.052
81.125	-2.0694
81.25	-2.08691
81.375	-2.10451
81.5	-2.12221
81.625	-2.14002
81.75	-2.15792
81.875	-2.17593
82	-2.19405
82.125	-2.21226
82.25	-2.23058
82.375	-2.249
82.5	-2.26752
82.625	-2.28615
82.75	-2.30489
82.875	-2.32372
83	-2.34267
83.125	-2.36172
83.25	-2.38087
83.375	-2.40013
83.5	-2.41949
83.625	-2.43896
83.75	-2.45854
83.875	-2.47823
84	-2.49802
84.125	-2.51792
84.25	-2.53793
84.375	-2.55805
84.5	-2.57827
84.625	-2.59861
84.75	-2.61905
84.875	-2.6396
85	-2.66027
85.125	-2.68104
85.25	-2.70192
85.375	-2.72292
85.5	-2.74402
85.625	-2.76524
85.75	-2.78657
85.875	-2.80801
86	-2.82956
86.125	-2.85122
86.25	-2.873
86.375	-2.89489
86.5	-2.9169
86.625	-2.93902
86.75	-2.96125
86.875	-2.98359
87	-3.00606
87.125	-3.02863
87.25	-3.05133
87.375	-3.07413
87.5	-3.09706
87.625	-3.1201
87.75	-3.14325
87.875	-3.16653
88	-3.18992
88.125	-3.21343
88.25	-3.23705
88.375	-3.2608
88.5	-3.28466
88.625	-3.30864
88.75	-3.33275
88.875	-3.35697
89	-3.38131
89.125	-3.40577
89.25	-3.43035
89.375	-3.45505
89.5	-3.47988
89.625	-3.50482
89.75	-3.52989
89.875	-3.55508
90	-3.58039
90.125	-3.60582
90.25	-3.63138
90.375	-3.65706
90.5	-3.68286
90.625	-3.70879
90.75	-3.73484
90.875	-3.76102
91	-3.78732
91.125	-3.81375
91.25	-3.8403
91.375	-3.86698
91.5	-3.89379
91.625	-3.92072
91.75	-3.94778
91.875	-3.97496
92	-4.00228
92.125	-4.02972
92.25	-4.05729
92.375	-4.08499
92.5	-4.11282
92.625	-4.14078
92.75	-4.16886
92.875	-4.19708
93	-4.22543
93.125	-4.25391
93.25	-4.28252
93.375	-4.31126
93.5	-4.34013
93.625	-4.36914
93.75	-4.39827
93.875	-4.42754
94	-4.45695
94.125	-4.48648
94.25	-4.51615
94.375	-4.54596
94.5	-4.5759
94.625	-4.60597
94.75	-4.63618
94.875	-4.66653
95	-4.69701
95.125	-4.72763
95.25	-4.75838
95.375	-4.78927
95.5	-4.8203
95.625	-4.85147
95.75	-4.88277
95.875	-4.91421
96	-4.94579
96.125	-4.97751
96.25	-5.00937
96.375	-5.04138
96.5	-5.07352
96.625	-5.1058
96.75	-5.13822
96.875	-5.17078
97	-5.20349
97.125	-5.23634
97.25	-5.26933
97.375	-5.30246
97.5	-5.33573
97.625	-5.36915
97.75	-5.40272
97.875	-5.43643
98	-5.47028
98.125	-5.50428
98.25	-5.53842
98.375	-5.57271
98.5	-5.60715
98.625	-5.64173
98.75	-5.67646
98.875	-5.71134
99	-5.74636
99.125	-5.78153
99.25	-5.81686
99.375	-5.85233
99.5	-5.88795
99.625	-5.92372
99.75	-5.95964
99.875	-5.99571
100	-6.03193
100.125	-6.06831
100.25	-6.10483
100.375	-6.14151
100.5	-6.17834
100.625	-6.21533
100.75	-6.25246
100.875	-6.28975
101	-6.3272
101.125	-6.3648
101.25	-6.40256
101.375	-6.44047
101.5	-6.47853
101.625	-6.51676
101.75	-6.55514
101.875	-6.59368
102	-6.63237
102.125	-6.67122
102.25	-6.71024
102.375	-6.74941
102.5	-6.78874
102.625	-6.82823
102.75	-6.86788
102.875	-6.90769
103	-6.94766
103.125	-6.9878
103.25	-7.0281
103.375	-7.06856
103.5	-7.10918
103.625	-7.14996
103.75	-7.19091
103.875	-7.23203
104	-7.27331
104.125	-7.31475
104.25	-7.35636
104.375	-7.39814
104.5	-7.44008
104.625	-7.48219
104.75	-7.52447
104.875	-7.56691
105	-7.60953
105.125	-7.65231
105.25	-7.69527
105.375	-7.73839
105.5	-7.78168
105.625	-7.82515
105.75	-7.86878
105.875	-7.91259
106	-7.95657
106.125	-8.00073
106.25	-8.04505
106.375	-8.08956
106.5	-8.13423
106.625	-8.17908
106.75	-8.22411
106.875	-8.26931
107	-8.31469
107.125	-8.36025
107.25	-8.40598
107.375	-8.45189
107.5	-8.49798
107.625	-8.54425
107.75	-8.5907
107.875	-8.63733
108	-8.68414
108.125	-8.73114
108.25	-8.77831
108.375	-8.82567
108.5	-8.8732
108.625	-8.92093
108.75	-8.96883
108.875	-9.01693
109	-9.0652
109.125	-9.11367
109.25	-9.16231
109.375	-9.21115
109.5	-9.26017
109.625	-9.30939
109.75	-9.35879
109.875	-9.40837
110	-9.45815
110.125	-9.50812
110.25	-9.55828
110.375	-9.60864
110.5	-9.65918
110.625	-9.70992
110.75	-9.76085
110.875	-9.81198
111	-9.8633
111.125	-9.91481
111.25	-9.96652
111.375	-10.0184
111.5	-10.0705
111.625	-10.1228
111.75	-10.1753
111.875	-10.228
112	-10.2809
112.125	-10.334
112.25	-10.3873
112.375	-10.4408
112.5	-10.4945
112.625	-10.5485
112.75	-10.6026
112.875	-10.6569
113	-10.7114
113.125	-10.7661
113.25	-10.8211
113.375	-10.8762
113.5	-10.9316
113.625	-10.9871
113.75	-11.0429
113.875	-11.0989
114	-11.1551
114.125	-11.2115
114.25	-11.2681
114.375	-11.3249
114.5	-11.3819
114.625	-11.4392
114.75	-11.4967
114.875	-11.5543
115	-11.6122
115.125	-11.6704
115.25	-11.7287
115.375	-11.7873
115.5	-11.846
115.625	-11.905
115.75	-11.9642
115.875	-12.0237
116	-12.0833
116.125	-12.1432
116.25	-12.2033
116.375	-12.2637
116.5	-12.3242
116.625	-12.385
116.75	-12.4461
116.875	-12.5073
117	-12.5688
117.125	-12.6305
117.25	-12.6924
117.375	-12.7546
117.5	-12.817
117.625	-12.8796
117.75	-12.9425
117.875	-13.0056
118	-13.069
118.125	-13.1325
118.25	-13.1964
118.375	-13.2604
118.5	-13.3247
118.625	-13.3893
118.75	-13.4541
118.875	-13.5191
119	-13.5844
119.125	-13.6499
119.25	-13.7156
119.375	-13.7817
119.5	-13.8479
119.625	-13.9144
119.75	-13.9812
119.875	-14.0482
120	-14.1155
120.125	-14.183
120.25	-14.2508
120.375	-14.3188
120.5	-14.3871
120.625	-14.4556
120.75	-14.5244
120.875	-14.5935
121	-14.6628
121.125	-14.7324
121.25	-14.8022
121.375	-14.8723
121.5	-14.9427
121.625	-15.0133
121.75	-15.0843
121.875	-15.1554
122	-15.2269
122.125	-15.2986
122.25	-15.3706
122.375	-15.4429
122.5	-15.5154
122.625	-15.5882
122.75	-15.6613
122.875	-15.7347
123	-15.8084
123.125	-15.8823
123.25	-15.9565
123.375	-16.031
123.5	-16.1058
123.625	-16.1809
123.75	-16.2562
123.875	-16.3319
124	-16.4078
124.125	-16.4841
124.25	-16.5606
124.375	-16.6374
124.5	-16.7145
124.625	-16.792
124.75	-16.8697
124.875	-16.9477
125	-17.026
125.125	-17.1046
125.25	-17.1836
125.375	-17.2628
125.5	-17.3424
125.625	-17.4222
125.75	-17.5024
125.875	-17.5829
126	-17.6636
126.125	-17.7448
126.25	-17.8262
126.375	-17.9079
126.5	-17.99
126.625	-18.0724
126.75	-18.1551
126.875	-18.2382
127	-18.3215
127.125	-18.4052
127.25	-18.4893
127.375	-18.5736
127.5	-18.6583
127.625	-18.7434
127.75	-18.8288
127.875	-18.9145
128	-19.0006
128.125	-19.087
128.25	-19.1737
128.375	-19.2608
128.5	-19.3483
128.625	-19.4361
128.75	-19.5243
128.875	-19.6128
129	-19.7017
129.125	-19.7909
129.25	-19.8805
129.375	-19.9705
129.5	-20.0609
129.625	-20.1516
129.75	-20.2427
129.875	-20.3341
130	-20.426
130.125	-20.5182
130.25	-20.6108
130.375	-20.7038
130.5	-20.7971
130.625	-20.8909
130.75	-20.985
130.875	-21.0796
131	-21.1745
131.125	-21.2699
131.25	-21.3656
131.375	-21.4618
131.5	-21.5583
131.625	-21.6553
131.75	-21.7527
131.875	-21.8505
132	-21.9487
132.125	-22.0474
132.25	-22.1464
132.375	-22.2459
132.5	-22.3458
132.625	-22.4462
132.75	-22.547
132.875	-22.6482
133	-22.7499
133.125	-22.852
133.25	-22.9546
133.375	-23.0576
133.5	-23.1611
133.625	-23.2651
133.75	-23.3695
133.875	-23.4743
134	-23.5797
134.125	-23.6855
134.25	-23.7918
134.375	-23.8986
134.5	-24.0059
134.625	-24.1136
134.75	-24.2219
134.875	-24.3306
135	-24.4399
135.125	-24.5496
135.25	-24.6599
135.375	-24.7707
135.5	-24.8819
135.625	-24.9938
135.75	-25.1061
135.875	-25.219
136	-25.3324
136.125	-25.4464
136.25	-25.5609
136.375	-25.6759
136.5	-25.7915
136.625	-25.9077
136.75	-26.0244
136.875	-26.1417
137	-26.2596
137.125	-26.3781
137.25	-26.4972
137.375	-26.6168
137.5	-26.737
137.625	-26.8579
137.75	-26.9794
137.875	-27.1014
138	-27.2241
138.125	-27.3475
138.25	-27.4714
138.375	-27.596
138.5	-27.7213
138.625	-27.8472
138.75	-27.9738
138.875	-28.101
139	-28.2289
139.125	-28.3575
139.25	-28.4868
139.375	-28.6168
139.5	-28.7475
139.625	-28.8789
139.75	-29.0111
139.875	-29.1439
140	-29.2775
140.125	-29.4119
140.25	-29.547
140.375	-29.6829
140.5	-29.8195
140.625	-29.9569
140.75	-30.0952
140.875	-30.2342
141	-30.374
141.125	-30.5147
141.25	-30.6562
141.375	-30.7986
141.5	-30.9418
141.625	-31.0858
141.75	-31.2308
141.875	-31.3766
142	-31.5234
142.125	-31.671
142.25	-31.8196
142.375	-31.9691
142.5	-32.1196
142.625	-32.2711
142.75	-32.4235
142.875	-32.5769
143	-32.7314
143.125	-32.8868
143.25	-33.0434
143.375	-33.2009
